structure(c(NA, 55.68, 55.76, NA, NA, 55.73, 56.1, 56.31, 56.36, 
56.45, NA, NA, 56.02, 56.35, 56.88, 56.52, 56.26, NA, NA, NA, 
56.22, 56.33, 55.53, 54.15, NA, NA, 53.91, 54.45, 53.8, 54.29, 
53.44, NA, NA, 51.96, 52.8, 52.89, 53.77, 54.36, NA, NA, 54.23, 
55.03, 55.05, 55.39, 55.48, NA, NA, NA, 55.84, 55.28, 55.37, 
55.31, NA, NA, 55.83, 55.56, 55.19, 55.46, 55.49, NA, NA, 54.71, 
55.73, 55.93, 56.49, 56.4, NA, NA, 56.27, 55.84, 55.72, 55.07, 
54.74, NA, NA, 55.39, 55.64, 55.22, 55.66, 55.61, NA, NA, 55.68, 
55.93, 55.68, 55.7, 55.95, NA, NA, 56.53, 57.15, 57.2, 57.2, 
56.89, NA, NA, 56.41, 56.38, 56.95, 55.84, 55.12, NA, NA, 55.42, 
55.41, 56.03, 56.34, NA, NA, NA, 56.09, 56.54, 56.51, 56.44, 
56, NA, NA, 56.04, 56.49, 56.58, 56.78, 56.79, NA, NA, 56.54, 
56.16, 56.49, 56.61, 56.45, NA, NA, 57.04, 57.06, 56.72, 56.21, 
56.32, NA, NA, 56.32, 55.99, 56.42, 56.58, 56.78, NA, NA, NA, 
57.36, 57.36, 57.42, 57.43, NA, NA, 57.53, 57.52, 57.62, 58.1, 
58.62, NA, NA, 58.75, 58.69, 58.36, 58.15, 58.18, NA, NA, 58.08, 
58.18, 58.52, 58.61, 58.47, NA, NA, 58.51, 57.28, 57.32, 57.23, 
57.3, NA, NA, 57.22, 57.7, 57.75, 58.14, NA, NA, NA, 57.71, 57.15, 
57.3, 56.82, 56.88, NA, NA, 57.31, 57.39, 57.61, 56.82, 57.35, 
NA, NA, 57.16, 57.37, 57.58, 57.91, 57.68, NA, NA, 57.8, 57.59, 
57.74, 56.81, 56.3, NA, NA, 56.68, 55.93, 55.98, 55.52, 55.88, 
NA, NA, 56.03, 56.22, 56.61, 56.85, 56.73, NA, NA, 57.16, 57.28, 
57.3, 57.79, 57.61, NA, NA, 58.11, 58.21, 58.25, 57.9, 58.07, 
NA, NA, NA, 58.19, 58.66, 58.57, 58.65, NA, NA, 58.34, 57.83, 
58.02, 57.97, 57.78, NA, NA, 57.74, 57.99, 57.86, 58.43, 58.24, 
NA, NA, 57.78, 57.3, 57.58, 56.66, 57.01, NA, NA, 56.38, 56.25, 
55.73, 55.46, 55.86, NA, NA, 56.21, 55.46, 56.29, 55.07, 54.38, 
NA, NA, 54.15, 54.28, 53.47, 53.15, 54.14, NA, NA, 54.43, 55.26, 
54.88, 55.45, 55.94, NA, NA, 55.65, 56.5, 56.23, 56.54, 57.44, 
NA, NA, 57.11, 57.07, 57.3, 56.99, 56.92, NA, NA, 57.14, 57.45, 
57.08, 57.08, 57.27, NA, NA, 57.18, 57.4, 57.43, 57.13, 57.64, 
NA, NA, 58.01, 58, 58.32, NA, 58.08, NA, NA, 57.72, 57.96, 58.22, 
57.88, 58.36, NA, NA, 58.29, 57.98, 57.1, 57.08, 56.07, NA, NA, 
55.31, 55.2, 55.91, 56.99, 56.64, NA, NA, 56.9, 57.08, 57.06, 
NA, 57.13, NA, NA, 57.19, 56.92, 56.46, NA, 56.41, NA, NA, 55.07, 
54.29, 54.78, 55.39, 54.85, NA, NA, 54.37, 54.42, 53.94, 53.66, 
54.24, NA, NA, NA, 54.11, 54.37, 55.33, 54.81, NA, NA, 55.14, 
54.83, 53.82, 54.33, 53.45, NA, NA, 54.22, 55.37, 54.99, 55.67, 
55.65, NA, NA, 55.34, 55.72, 55.54, 56.21, 56.63, NA, NA, NA, 
56.88, 56.82, 56.71, 57.22, NA, NA, 56.72, 57.16, 57.18, 57.08, 
57.07, NA, NA, 57.42, 57.01, 56.75, 56.84, 56.23, NA, NA, 56.45, 
55.22, 55.45, 56.48, 56.05, NA, NA, NA, 70.2, 70.43, NA, NA, 
70.15, 70.48, 70.33, 70.47, 70.82, NA, NA, 70.21, 70.84, 71.36, 
71.14, 70.94, NA, NA, NA, 70.98, 71.16, 70.4, 68.43, NA, NA, 
68.53, 69.15, 68.34, 68.63, 67.89, NA, NA, 66.4, 66.73, 66.94, 
67.94, 68.94, NA, NA, 68.52, 69.45, 69.68, 69.66, 70.03, NA, 
NA, NA, 70.17, 69.82, 69.98, 70.04, NA, NA, 70.7, 70.36, 70.27, 
70.56, 71.08, NA, NA, 69.93, 71.2, 71.12, 71.8, 71.58, NA, NA, 
71.3, 70.86, 70.46, 69.36, 69.19, NA, NA, 70.19, 70.52, 69.5, 
69.64, 69.75, NA, NA, 69.76, 70.24, 70.13, 70.03, 70.64, NA, 
NA, 71.18, 71.46, 72, 71.91, 71.38, NA, NA, 70.73, 70.56, 71.45, 
70.23, 69.67, NA, NA, 69.49, 69.91, 70.85, 71.52, NA, NA, NA, 
71.57, 71.71, 71.76, 71.61, 71.23, NA, NA, 71.28, 71.29, 71.79, 
71.79, 71.8, NA, NA, 71.7, 71.45, 71.77, 71.56, 71.67, NA, NA, 
72.56, 72.79, 72.52, 71.85, 71.71, NA, NA, 72.02, 71.32, 71.73, 
71.98, 72.37, NA, NA, NA, 72.8, 72.84, 73.12, 73.14, NA, NA, 
73.47, 73.33, 73.29, 74.04, 74.68, NA, NA, 74.87, 74.62, 74.11, 
73.36, 73.49, NA, NA, 73.5, 73.61, 74.1, 74.32, 74.63, NA, NA, 
74.04, 72.8, 72.92, 72.86, 72.93, NA, NA, 72.86, 73.36, 73.1, 
73.6, NA, NA, NA, 73.03, 72.46, 72.64, 71.88, 72.26, NA, NA, 
72.74, 72.58, 73.03, 72.1, 72.55, NA, NA, 72.42, 72.76, 72.66, 
72.58, 72.31, NA, NA, 72.15, 71.55, 71.41, 70.08, 69.8, NA, NA, 
70.08, 69.38, 69.13, 68.94, 69.65, NA, NA, 70.13, 70.09, 70.47, 
70.83, 70.66, NA, NA, 71.43, 71.82, 72, 72.06, 71.8, NA, NA, 
72.21, 72.08, 72.03, 71.76, 71.68, NA, NA, NA, 71.94, 72.13, 
71.93, 72.1, NA, NA, 71.79, 71.44, 71.73, 71.44, 71.15, NA, NA, 
71.35, 71.53, 71.46, 71.89, 71.72, NA, NA, 71.21, 70.57, 70.97, 
69.97, 70.48, NA, NA, 70.16, 70.07, 68.81, 68.39, 69.05, NA, 
NA, 69.01, 67.47, 68.57, 66.88, 65.8, NA, NA, 64.96, 65.6, 65.36, 
65.72, 66.53, NA, NA, 67.07, 68.03, 67.5, 68.56, 69.16, NA, NA, 
69, 70.11, 69.84, 70.27, 71.32, NA, NA, 71.2, 70.93, 71.1, 71.33, 
71.34, NA, NA, 71.74, 71.89, 71.59, 71.51, 71.58, NA, NA, 71.39, 
72.04, 71.74, 71.65, 72.34, NA, NA, 72.74, 72.97, 72.93, NA, 
72.29, NA, NA, 71.83, 72.07, 72.57, 72.29, 72.27, NA, NA, 71.55, 
71.53, 70.26, 70.27, 69.32, NA, NA, 68.89, 69.11, 69.88, 71.19, 
70.92, NA, NA, 71.38, 71.81, 71.89, NA, 72.06, NA, NA, 71.85, 
71.26, 70.51, NA, 70.48, NA, NA, 68.84, 68.13, 68.47, 69.69, 
69.08, NA, NA, 68.8, 68.9, 68.45, 68.39, 68.69, NA, NA, NA, 69.56, 
70.04, 70.86, 70.5, NA, NA, 70.92, 70.35, 69.43, 70.15, 69.16, 
NA, NA, 70.06, 71.17, 70.51, 71.47, 70.96, NA, NA, 70.64, 71.17, 
71.03, 71.86, 72.24, NA, NA, NA, 72.4, 73, 73.24, 73.83, NA, 
NA, 73.64, 73.74, 73.74, 73.44, 73.45, NA, NA, 73.59, 73.2, 72.81, 
72.87, 71.94, NA, NA, 72.29, 71.26, 71.27, 72.22, 71.69, NA, 
NA, NA, 50.35, 50.35, NA, NA, 50.3, 50.49, 50.62, 50.62, 51.12, 
NA, NA, 51.23, 51.37, 52.03, 51.62, 51.82, NA, NA, NA, 51.62, 
51.68, 51.13, 50.15, NA, NA, 50.15, 50.38, 50.37, 50.24, 49.5, 
NA, NA, 48.34, 48.03, 48.55, 49.28, 49.79, NA, NA, 49.8, 50.04, 
50.19, 50.11, 50.39, NA, NA, NA, 50.65, 50.87, 50.58, 51, NA, 
NA, 51.38, 51.5, 51.5, 51.79, 51.88, NA, NA, 50.67, 51.59, 51.52, 
52.02, 52.18, NA, NA, 52.57, 52.3, 51.6, 50.98, 50.64, NA, NA, 
51.19, 51.97, 51.32, 51.11, 51.11, NA, NA, 51.2, 51.01, 51.16, 
51.32, 51.84, NA, NA, 51.84, 51.84, 52.84, 52.82, 52.82, NA, 
NA, 52.26, 52.05, 52.25, 51.67, 51.36, NA, NA, 51.11, 50.6, 51.89, 
52.08, NA, NA, NA, 52.08, 52.65, 52.37, 52.63, 52.19, NA, NA, 
51.94, 52.43, 52.22, 52.58, 52.78, NA, NA, 52.64, 52.47, 52.47, 
52.37, 51.94, NA, NA, 52.55, 52.55, 51.96, 51.12, 51.18, NA, 
NA, 51.23, 50.5, 51.1, 51.58, 51.53, NA, NA, NA, 52.1, 52.1, 
52.68, 52.98, NA, NA, 53.06, 53.16, 53.22, 53.27, 54.16, NA, 
NA, 54.49, 54.49, 54.49, 54.49, 53.61, NA, NA, 53.57, 53.54, 
53.54, 53.6, 53.96, NA, NA, 53.51, 52.76, 52.24, 52.51, 52.56, 
NA, NA, 52.56, 52.56, 53, 53, NA, NA, NA, 52.29, 52.29, 51.5, 
50.99, 51.21, NA, NA, 51.84, 51.49, 51.91, 51.91, 52.06, NA, 
NA, 51.89, 52.65, 52.95, 52.81, 52.85, NA, NA, 52.76, 52.76, 
52.3, 51.19, 50.77, NA, NA, 51.08, 50.2, 50.08, 49.64, 49.63, 
NA, NA, 50.63, 50.63, 50.64, 50.64, 51.01, NA, NA, 51.01, 51.64, 
51.26, 51.26, 51.08, NA, NA, 51.52, 52.25, 52.13, 52.13, 51.92, 
NA, NA, NA, 51.69, 52.1, 51.72, 51.79, NA, NA, 51.69, 51.12, 
51.12, 50.64, 50.52, NA, NA, 49.97, 50.14, 50.12, 50.07, 50.07, 
NA, NA, 49.64, 49.64, 49.64, 49.64, 49.64, NA, NA, 48.5, 48.34, 
47.23, 46.57, 46.97, NA, NA, 46.97, 46.18, 46.27, 44.61, 44.48, 
NA, NA, 43.68, 43.67, 42.91, 43.4, 44.38, NA, NA, 44.38, 44.82, 
45.68, 45.77, 45.61, NA, NA, 45.21, 45.21, 45.93, 45.74, 45.74, 
NA, NA, 46.88, 46, 46.12, 46.02, 45.63, NA, NA, 46.16, 46.12, 
45.55, 45.05, 45.02, NA, NA, 44.54, 45.08, 45.03, 44.92, 45.39, 
NA, NA, 45.6, 45.72, 45.72, NA, 44.83, NA, NA, 44.83, 44.54, 
44.93, 44.76, 44.59, NA, NA, 44.59, 44.59, 43.63, 43.77, 43.33, 
NA, NA, 43.02, 43.14, 43.66, 44.9, 45.22, NA, NA, 45.22, 45.28, 
45.26, NA, 45.26, NA, NA, 45.26, 45.4, 45.18, NA, 45.14, NA, 
NA, 43.98, 43.46, 43.62, 44.23, 43.8, NA, NA, 43.21, 43.76, 42.85, 
43.26, 43.38, NA, NA, NA, 43.3, 43.5, 43.5, 43.57, NA, NA, 44.18, 
43.71, 42.93, 43.11, 43.11, NA, NA, 42.91, 42.91, 44.29, 44.29, 
44.13, NA, NA, 44.06, 44.4, 44.03, 44.03, 44.03, NA, NA, NA, 
44.03, 46.37, 46.25, 46.72, NA, NA, 46.37, 46.75, 47.05, 47.15, 
46.49, NA, NA, 46.49, 46.37, 46.37, 46.37, 46.37, NA, NA, 45.37, 
44.86, 44.86, 45.04, 45.04, NA, NA, NA, 38.41, 38.43, NA, NA, 
38.31, 38.53, 38.36, 38.26, 38.67, NA, NA, 38.48, 38.71, 38.67, 
38.75, 38.69, NA, NA, NA, 38.97, 39.02, 38.89, 38.2, NA, NA, 
38.2, 38.34, 37.94, 38.5, 38.43, NA, NA, 37.99, 38.2, 38.03, 
38.55, 38.99, NA, NA, 38.88, 39.28, 39.28, 39.71, 39.98, NA, 
NA, NA, 40.01, 39.86, 40, 40.13, NA, NA, 40.24, 40.25, 40.05, 
40.25, 40.2, NA, NA, 39.92, 40.53, 40.59, 40.91, 40.76, NA, NA, 
40.52, 40.4, 40.6, 40.28, 40.41, NA, NA, 40.9, 41.01, 40.58, 
40.5, 40.51, NA, NA, 40.64, 41.03, 40.94, 41.23, 41.47, NA, NA, 
41.65, 41.83, 41.8, 41.79, 41.67, NA, NA, 41.61, 41.87, 42.16, 
41.71, 41.56, NA, NA, 41.59, 41.55, 42.03, 42.05, NA, NA, NA, 
42.09, 42.18, 42.05, 41.95, 41.88, NA, NA, 42.07, 42.14, 42.26, 
42.38, 42.22, NA, NA, 42.41, 42.37, 42.66, 42.48, 42.27, NA, 
NA, 42.49, 42.53, 42.44, 42.31, 42.42, NA, NA, 42.37, 42.19, 
42.4, 42.62, 42.69, NA, NA, NA, 42.97, 42.97, 43.22, 43.4, NA, 
NA, 43.48, 43.29, 43.13, 43.63, 43.89, NA, NA, 43.82, 43.8, 43.46, 
43.5, 43.64, NA, NA, 44.05, 44.14, 44.55, 44.57, 44.54, NA, NA, 
44.43, 43.76, 43.92, 44.13, 44.23, NA, NA, 44.33, 44.46, 44.37, 
44.26, NA, NA, NA, 43.97, 43.81, 43.89, 43.71, 43.77, NA, NA, 
43.86, 43.8, 44.19, 43.74, 44.13, NA, NA, 44.16, 44.38, 44.45, 
44.67, 44.3, NA, NA, 44.46, 44.3, 43.97, 43.18, 42.87, NA, NA, 
42.98, 42.29, 42.12, 41.87, 42.32, NA, NA, 42.67, 42.83, 43, 
43.22, 43.42, NA, NA, 43.5, 43.71, 43.81, 43.91, 43.74, NA, NA, 
44.02, 43.9, 44.16, 44.2, 44.28, NA, NA, NA, 44.31, 44.49, 44.47, 
44.86, NA, NA, 44.38, 44.06, 43.95, 43.92, 43.43, NA, NA, 43.25, 
43.67, 43.39, 43.54, 43.5, NA, NA, 43.06, 42.64, 42.79, 42.23, 
42.53, NA, NA, 42.35, 42.43, 42.16, 42.02, 42, NA, NA, 42.26, 
41.62, 42.3, 41.03, 40.74, NA, NA, 40.54, 40.45, 40.45, 40.45, 
41.08, NA, NA, 41.38, 41.88, 41.68, 41.99, 42.3, NA, NA, 42.16, 
42.74, 42.38, 42.82, 43.28, NA, NA, 43.05, 42.83, 43.23, 42.83, 
42.94, NA, NA, 43.11, 43.37, 42.89, 42.68, 42.69, NA, NA, 42.81, 
43.07, 43.11, 43.02, 43.27, NA, NA, 43.18, 43.2, 43.58, NA, 43.25, 
NA, NA, 43.18, 43.2, 43.37, 43.53, 43.41, NA, NA, 42.85, 42.79, 
42.22, 42.31, 41.76, NA, NA, 41.18, 41.44, 42.24, 42.81, 42.31, 
NA, NA, 42.51, 42.52, 42.85, NA, 42.98, NA, NA, 43.06, 42.49, 
42.15, NA, 42.22, NA, NA, 41.28, 40.98, 41.34, 41.78, 41.54, 
NA, NA, 41.27, 41.43, 41.49, 41.75, 42.25, NA, NA, NA, 42.35, 
42.7, 42.74, 42.49, NA, NA, 42.89, 43, 42.47, 42.88, 42.27, NA, 
NA, 42.76, 43.13, 42.51, 42.98, 42.17, NA, NA, 41.65, 42.27, 
41.89, 42.45, 42.34, NA, NA, NA, 42.31, 42.43, 42.14, 42.3, NA, 
NA, 42.28, 42.65, 42.53, 41.9, 42.3, NA, NA, 42.08, 42.11, 41.65, 
41.76, 40.89, NA, NA, 40.89, 40.37, 40.28, 40.73, 40.32, NA, 
NA, NA, 49.8, 49.62, NA, NA, 49.54, 49.49, 49.47, 49.18, 49.48, 
NA, NA, 48.98, 49.41, 49.56, 49.86, 49.89, NA, NA, NA, 49.9, 
49.78, 49.33, 48.11, NA, NA, 47.56, 48.03, 47.81, 47.89, 47.35, 
NA, NA, 46.29, 46.76, 46.75, 47.54, 48.26, NA, NA, 48.21, 48.94, 
49, 49.23, 49.74, NA, NA, NA, 50.02, 49.78, 50.14, 50.21, NA, 
NA, 50.22, 49.93, 49.69, 49.79, 49.88, NA, NA, 49.4, 49.91, 50.05, 
50.46, 49.93, NA, NA, 49.6, 49.02, 49.02, 48.45, 48.6, NA, NA, 
49.01, 49.39, 48.62, 48.61, 48.8, NA, NA, 48.88, 49.47, 49.15, 
49.51, 49.98, NA, NA, 50.34, 50.42, 50.63, 50.55, 50.5, NA, NA, 
50.3, 50.74, 51.19, 50.38, 50.03, NA, NA, 50.48, 50.43, 50.87, 
51, NA, NA, NA, 51.1, 51.08, 51.12, 51.15, 50.86, NA, NA, 51, 
51.37, 51.61, 51.47, 51.69, NA, NA, 51.73, 51.76, 52.12, 52.07, 
51.86, NA, NA, 52.38, 52.59, 52.67, 52.17, 52.2, NA, NA, 52.22, 
51.87, 52.12, 52.21, 52.32, NA, NA, NA, 52.18, 51.91, 52.25, 
51.85, NA, NA, 52.01, 51.78, 51.72, 52.18, 52.44, NA, NA, 52.5, 
52.44, 52.38, 52.29, 52.45, NA, NA, 52.66, 52.62, 53.28, 53.56, 
52.95, NA, NA, 53.4, 52.85, 52.84, 52.97, 52.96, NA, NA, 52.85, 
53.25, 53.45, 53.77, NA, NA, NA, 53.39, 53.2, 53.55, 52.95, 52.89, 
NA, NA, 53.07, 52.89, 53.49, 52.9, 53.15, NA, NA, 53.08, 53.49, 
53.63, 53.72, 53.57, NA, NA, 53.63, 53.37, 53.01, 52.17, 51.89, 
NA, NA, 52.35, 51.68, 51.71, 51.23, 51.72, NA, NA, 52.03, 51.95, 
51.83, 51.89, 52.04, NA, NA, 52.29, 52.46, 52.53, 52.4, 52.04, 
NA, NA, 52.3, 52.54, 52.56, 52.26, 52.4, NA, NA, NA, 52, 52.32, 
51.95, 52.12, NA, NA, 51.49, 51.15, 51.11, 51.06, 50.76, NA, 
NA, 50.65, 51.14, 50.86, 50.9, 50.54, NA, NA, 49.9, 49.78, 50.04, 
49.17, 49.24, NA, NA, 48.84, 48.71, 47.82, 47.52, 47.23, NA, 
NA, 47.64, 46.92, 47.5, 46.24, 45.34, NA, NA, 45.37, 45.41, 45.31, 
45.35, 45.83, NA, NA, 46.12, 46.92, 46.31, 46.48, 46.75, NA, 
NA, 46.21, 47.03, 46.74, 46.71, 47.29, NA, NA, 46.53, 46.18, 
46.4, 46.46, 47.09, NA, NA, 46.97, 47.07, 46.96, 46.72, 46.99, 
NA, NA, 47.07, 47.51, 47.18, 47.4, 48.17, NA, NA, 47.9, 47.75, 
47.74, NA, 45.86, NA, NA, 45.83, 46.06, 46.4, 46.13, 45.86, NA, 
NA, 45.04, 44.99, 44.13, 43.81, 42.76, NA, NA, 41.99, 42.25, 
43.56, 44.33, 44.57, NA, NA, 44.44, 44.43, 44.5, NA, 44.61, NA, 
NA, 44.48, 44.45, 44, NA, 43.9, NA, NA, 42.59, 42.54, 42.96, 
43.76, 43.68, NA, NA, 43.13, 42.73, 42.04, 42.14, 43.14, NA, 
NA, NA, 43.21, 43.77, 44.21, 43.46, NA, NA, 43.85, 43.89, 43.08, 
43.01, 42.99, NA, NA, 43.67, 44.89, 44.31, 45.32, 44.74, NA, 
NA, 44.96, 44.86, 44.58, 45.46, 46.15, NA, NA, NA, 46.1, 46.24, 
45.89, 46.11, NA, NA, 45.64, 46.11, 46.32, 45.79, 45.92, NA, 
NA, 45.66, 45.35, 44.92, 44.85, 43.87, NA, NA, 43.84, 42.74, 
42.57, 42.88, 42.25, NA, NA, NA, 82.27, 81.94, NA, NA, 81.74, 
82.29, 82.42, 82, 82.16, NA, NA, 81.47, 82.86, 83.65, 83.49, 
83.03, NA, NA, NA, 83.43, 83.56, 82.95, 81.21, NA, NA, 80.57, 
80.17, 79.43, 80.4, 80.38, NA, NA, 78.72, 79.2, 79.12, 80.28, 
81.35, NA, NA, 81.43, 82.63, 82.79, 83.42, 83.58, NA, NA, NA, 
83.85, 83.32, 83.64, 83.57, NA, NA, 83.95, 83.66, 83.77, 84.35, 
84.24, NA, NA, 83.19, 84.72, 84.78, 85.04, 84.71, NA, NA, 84.57, 
84.24, 84.34, 83.07, 82.51, NA, NA, 83.43, 84.57, 83.95, 84.26, 
83.98, NA, NA, 83.9, 84.32, 83.68, 83.49, 83.76, NA, NA, 84.51, 
85.49, 85.66, 85.25, 83.72, NA, NA, 82.97, 83.74, 84.99, 82.9, 
82.04, NA, NA, 82.61, 82.91, 83.87, 83.73, NA, NA, NA, 84.06, 
84.39, 83.7, 84.41, 83.21, NA, NA, 84, 84.39, 84.48, 84.35, 84.43, 
NA, NA, 84.53, 83.8, 83.73, 83.76, 83.78, NA, NA, 85.2, 85.36, 
84.92, 84.11, 84.67, NA, NA, 85.2, 84.82, 85.48, 85.68, 86.47, 
NA, NA, NA, 87.2, 87.04, 87.48, 87.75, NA, NA, 87.63, 87.64, 
87.64, 88.49, 88.66, NA, NA, 88.86, 88.98, 88.77, 87.9, 88.38, 
NA, NA, 88.36, 88.68, 89.27, 89.01, 88.87, NA, NA, 88.92, 88.16, 
88.37, 88.4, 88.74, NA, NA, 88.97, 89.99, 89.97, 90.41, NA, NA, 
NA, 90.19, 89.55, 89.94, 89.58, 89.8, NA, NA, 90.48, 90.21, 90.95, 
89.79, 90.92, NA, NA, 91, 91.9, 91.93, 91.88, 91.63, NA, NA, 
91.81, 91.42, 91.71, 90.04, 89.45, NA, NA, 90.19, 89.22, 89.1, 
88.6, 89.11, NA, NA, 89.74, 89.57, 90.38, 90.66, 90.73, NA, NA, 
91.64, 92.13, 92.2, 92.54, 92.53, NA, NA, 92.63, 92.59, 92.56, 
92.44, 92.88, NA, NA, NA, 93.01, 92.48, 92.26, 92.74, NA, NA, 
92.93, 92.33, 92.94, 92.99, 92.64, NA, NA, 92.17, 92.77, 92.68, 
93.45, 93.12, NA, NA, 92.22, 92.05, 92.52, 90.61, 91.46, NA, 
NA, 91.45, 91.51, 89.82, 89.93, 90.49, NA, NA, 90.57, 89.14, 
90.7, 88.95, 86.59, NA, NA, 85.64, 85.99, 85.52, 85.02, 85.92, 
NA, NA, 86.59, 87.98, 87.78, 89, 89.56, NA, NA, 89.57, 90.82, 
90.76, 91.12, 92.94, NA, NA, 93.05, 93.01, 93.16, 93.15, 93.13, 
NA, NA, 93.54, 93.5, 93.69, 94.09, 94.64, NA, NA, 94.35, 94.87, 
94.43, 94.9, 95.17, NA, NA, 95.71, 95.79, 96.61, NA, 96.85, NA, 
NA, 96.04, 96.25, 96.75, 96.78, 96.46, NA, NA, 95.65, 95.88, 
94.46, 94.87, 93.33, NA, NA, 92.77, 91.78, 93.24, 95.72, 95.53, 
NA, NA, 96.39, 96.61, 96.61, NA, 97.01, NA, NA, 96.47, 95.64, 
94.88, NA, 94.57, NA, NA, 92.92, 91.86, 92.76, 94.78, 94.38, 
NA, NA, 93.48, 93.49, 92.99, 92.09, 92.84, NA, NA, NA, 93.59, 
93.93, 95.51, 95.55, NA, NA, 95.58, 92.92, 92.73, 93.5, 92.05, 
NA, NA, 93.07, 93.96, 94.03, 94.98, 94.1, NA, NA, 94.04, 95.38, 
95.62, 96.85, 97.63, NA, NA, NA, 97.74, 97.87, 98.22, 98.78, 
NA, NA, 98.89, 99.25, 98.74, 99.38, 98.9, NA, NA, 99.93, 99.18, 
98.93, 98.77, 97.59, NA, NA, 98.01, 96.03, 95.77, 96.19, 95.96, 
NA, NA, NA, 43.36, 43.38, NA, NA, 43.36, 43.49, 43.24, 43.45, 
44.05, NA, NA, 43.43, 43.87, 43.77, 43.98, 43.97, NA, NA, NA, 
44.26, 44.41, 44.38, 43.68, NA, NA, 43.68, 43.95, 43.57, 44.05, 
44.09, NA, NA, 43.65, 43.7, 43.59, 44.1, 44.55, NA, NA, 44.59, 
45.02, 45.17, 45.53, 45.92, NA, NA, NA, 45.89, 45.8, 46.35, 46.35, 
NA, NA, 46.77, 46.36, 46.08, 46.28, 46.58, NA, NA, 46.02, 46.61, 
46.5, 46.56, 46.46, NA, NA, 46.39, 46.43, 46.71, 46.56, 46.7, 
NA, NA, 47.17, 47.37, 46.75, 46.68, 46.76, NA, NA, 46.93, 47.21, 
47.11, 47.37, 47.78, NA, NA, 47.99, 47.78, 47.63, 47.56, 47.55, 
NA, NA, 47.75, 47.97, 48.27, 47.68, 47.59, NA, NA, 48.01, 48.23, 
48.76, 48.5, NA, NA, NA, 48.45, 48.58, 48.5, 48.49, 48.63, NA, 
NA, 48.89, 48.94, 49.06, 49.42, 48.71, NA, NA, 48.84, 48.77, 
49.51, 49.15, 48.78, NA, NA, 48.73, 48.68, 48.63, 48.44, 48.62, 
NA, NA, 48.43, 48.33, 48.54, 48.73, 48.73, NA, NA, NA, 49.08, 
49.2, 49.22, 49.61, NA, NA, 49.69, 49.6, 49.53, 49.93, 50.06, 
NA, NA, 49.92, 49.81, 49.29, 49.42, 49.64, NA, NA, 49.98, 49.94, 
50.74, 51.11, 50.9, NA, NA, 50.8, 49.78, 49.87, 49.99, 50.19, 
NA, NA, 50.31, 50.33, 49.84, 49.56, NA, NA, NA, 49.39, 49.41, 
49.31, 49.25, 49.14, NA, NA, 48.93, 49.13, 49.36, 48.76, 49.24, 
NA, NA, 49.32, 49.42, 49.38, 49.57, 49.14, NA, NA, 49.64, 49.33, 
48.75, 47.99, 47.78, NA, NA, 47.86, 47.15, 46.78, 46.78, 47.49, 
NA, NA, 47.36, 47.37, 47.69, 47.98, 48.18, NA, NA, 48.22, 48.43, 
48.51, 48.75, 48.44, NA, NA, 48.8, 48.5, 48.75, 48.82, 49.07, 
NA, NA, NA, 48.76, 49.19, 49.19, 49.55, NA, NA, 49.16, 48.61, 
48.71, 48.89, 48.22, NA, NA, 48.22, 48.72, 48.45, 48.34, 48.44, 
NA, NA, 48.34, 47.95, 47.99, 47.59, 47.81, NA, NA, 47.73, 47.74, 
47.7, 47.22, 47.44, NA, NA, 47.59, 47.1, 48.2, 47.24, 47.04, 
NA, NA, 47.09, 47.36, 46.96, 46.61, 47.12, NA, NA, 47.61, 47.9, 
48.02, 48.23, 48.61, NA, NA, 48.51, 49.14, 48.71, 49.5, 49.83, 
NA, NA, 49.53, 49.32, 50.06, 49.38, 49.56, NA, NA, 49.93, 50, 
49.11, 48.87, 48.77, NA, NA, 49.17, 49.45, 49.55, 49.15, 49.5, 
NA, NA, 49.39, 49.51, 49.9, NA, 50.04, NA, NA, 50.22, 50.31, 
50.22, 50.11, 50.06, NA, NA, 50.01, 49.88, 49.42, 49.41, 48.96, 
NA, NA, 48.15, 48.44, 49.06, 50.01, 49.22, NA, NA, 49.3, 49.39, 
50.14, NA, 50.43, NA, NA, 50.69, 49.7, 49.17, NA, 49.2, NA, NA, 
48.06, 47.89, 48.23, 48.61, 48.23, NA, NA, 47.94, 48.14, 48.35, 
48.56, 49.11, NA, NA, NA, 49.27, 49.69, 49.79, 49.68, NA, NA, 
50.08, 50.31, 49.85, 50.66, 49.66, NA, NA, 49.97, 50.19, 49.51, 
49.88, 48.31, NA, NA, 47.76, 48.65, 47.97, 48.06, 47.63, NA, 
NA, NA, 47.58, 48.04, 47.67, 47.88, NA, NA, 48, 48.55, 48.22, 
47.74, 47.93, NA, NA, 47.23, 47.13, 46.73, 46.98, 45.62, NA, 
NA, 45.67, 45.23, 45.04, 45.6, 45.05, NA, NA, NA, 83.44, 83.15, 
NA, NA, 82.96, 83.36, 83.21, 83.12, 83.64, NA, NA, 82.43, 83.16, 
83.44, 83.04, 82.9, NA, NA, NA, 82.88, 83.11, 82.33, 80.56, NA, 
NA, 80.11, 80.87, 79.73, 80.63, 79.42, NA, NA, 77.2, 78, 78.29, 
79.78, 81.02, NA, NA, 80.78, 81.9, 81.89, 82.26, 82.62, NA, NA, 
NA, 82.71, 81.67, 82.18, 82.43, NA, NA, 82.93, 83.01, 83.24, 
83.51, 83.83, NA, NA, 82.48, 83.76, 83.9, 84.63, 84.12, NA, NA, 
83.67, 83.25, 82.86, 81.71, 81.53, NA, NA, 82.31, 82.71, 82.12, 
81.82, 81.6, NA, NA, 81.23, 81.22, 81.21, 80.93, 81.47, NA, NA, 
82.08, 82.96, 83.34, 83.2, 82.14, NA, NA, 81.08, 81.08, 82.32, 
80.39, 79.61, NA, NA, 80.04, 79.96, 81.21, 81.34, NA, NA, NA, 
81.62, 82.24, 81.72, 81.95, 80.88, NA, NA, 80.63, 81.13, 81.23, 
81.47, 81.61, NA, NA, 81.46, 80.74, 80.67, 80.4, 80.82, NA, NA, 
81.74, 81.63, 81, 80.6, 80.84, NA, NA, 81.29, 80.65, 81.62, 81.85, 
82.41, NA, NA, NA, 83.02, 82.98, 83.12, 83.47, NA, NA, 83.77, 
83.62, 83.64, 84.12, 84.4, NA, NA, 84.43, 84.4, 84.17, 83.54, 
83.31, NA, NA, 83.72, 83.94, 84.54, 84.64, 84.33, NA, NA, 84.36, 
83.09, 83.67, 83.74, 84.02, NA, NA, 84.09, 84.99, 84.87, 85.5, 
NA, NA, NA, 84.81, 83.83, 84.54, 83.67, 83.92, NA, NA, 84.32, 
83.95, 84.42, 83.61, 84.08, NA, NA, 83.86, 84.06, 84.06, 84.22, 
83.3, NA, NA, 83.33, 83.29, 83.47, 81.87, 81.62, NA, NA, 82.3, 
81.3, 81.2, 80.51, 81.56, NA, NA, 81.95, 81.79, 82.04, 82.63, 
82.3, NA, NA, 82.97, 83.61, 83.73, 83.76, 83.63, NA, NA, 84.03, 
84.21, 83.98, 83.78, 83.7, NA, NA, NA, 83.91, 83.96, 84.31, 84.43, 
NA, NA, 83.8, 83.19, 83.45, 83.56, 83.43, NA, NA, 83.28, 83.6, 
83.15, 83.48, 83.51, NA, NA, 82.56, 82.05, 82.58, 81.56, 81.93, 
NA, NA, 81.44, 80.8, 79.8, 79.79, 80.46, NA, NA, 80.39, 79.09, 
80.38, 78.35, 77.59, NA, NA, 76.26, 76.7, 76.53, 76.47, 77.19, 
NA, NA, 78.24, 79.44, 78.92, 79.9, 79.99, NA, NA, 79.81, 80.69, 
80.78, 81.09, 82.46, NA, NA, 82.48, 81.47, 81.87, 82.22, 81.94, 
NA, NA, 82.29, 82.65, 82.63, 83.11, 83.54, NA, NA, 83.26, 83.83, 
83.9, 84.16, 84.53, NA, NA, 85.22, 85.62, 85.61, NA, 86.39, NA, 
NA, 86.25, 86.34, 86.44, 86.38, 86.48, NA, NA, 85.96, 85.61, 
84.56, 84.99, 84.2, NA, NA, 83.3, 82.76, 83.93, 85.26, 84.84, 
NA, NA, 85.4, 85.8, 85.8, NA, 86.2, NA, NA, 86.25, 85.8, 85.14, 
NA, 84.76, NA, NA, 83, 82.26, 83.44, 84.74, 84.11, NA, NA, 83.88, 
84.02, 83.38, 82.76, 83.76, NA, NA, NA, 83.69, 84.24, 85.24, 
85.14, NA, NA, 86.04, 85.54, 84.54, 85.72, 84.51, NA, NA, 85.38, 
86.83, 87.21, 87.94, 87.24, NA, NA, 86.66, 87.99, 87.9, 89.08, 
89.58, NA, NA, NA, 89.49, 89.85, 90.23, 90.87, NA, NA, 90.84, 
91.17, 91.32, 91.22, 91.26, NA, NA, 92.05, 91.26, 91.02, 91.29, 
90.09, NA, NA, 90.59, 88.92, 88.99, 90.49, 89.93, NA, NA, NA, 
84.79, 84.96, NA, NA, 84.76, 84.99, 84.25, 84.25, 84.64, NA, 
NA, 84.14, 84.78, 84.56, 84.66, 84.2, NA, NA, NA, 84.86, 85.19, 
84.51, 83.06, NA, NA, 82.87, 83.18, 81.71, 81.65, 81.08, NA, 
NA, 79.68, 80.13, 80.39, 81.37, 82.32, NA, NA, 82.53, 83.26, 
83.08, 83.27, 83.68, NA, NA, NA, 83.62, 83.38, 83.86, 83.74, 
NA, NA, 84.38, 84.35, 84.37, 84.6, 84.91, NA, NA, 84.09, 85.33, 
85.41, 85.62, 85.49, NA, NA, 85.48, 85.04, 84.84, 83.96, 84.03, 
NA, NA, 84.47, 84.88, 84.06, 83.98, 84.22, NA, NA, 84.43, 85.15, 
85.27, 85.59, 85.92, NA, NA, 86.38, 86.25, 86.26, 86.26, 86.05, 
NA, NA, 86.35, 86.82, 87.49, 86.72, 86.48, NA, NA, 86.99, 87.46, 
88.17, 88.19, NA, NA, NA, 88.13, 88.37, 88.1, 88.22, 88.17, NA, 
NA, 89.24, 89.15, 89.12, 89.24, 88.91, NA, NA, 88.91, 88.69, 
89.57, 89.5, 89.74, NA, NA, 90.24, 90.16, 90.09, 89.74, 90.52, 
NA, NA, 90.27, 89.8, 90.19, 90.15, 90.18, NA, NA, NA, 90.17, 
89.87, 90.47, 90.79, NA, NA, 90.74, 90.65, 90.7, 90.9, 90.94, 
NA, NA, 90.9, 91.09, 90.94, 90.51, 90.39, NA, NA, 90.76, 90.67, 
91.48, 91.81, 91.89, NA, NA, 91.49, 89.92, 89.77, 89.63, 89.75, 
NA, NA, 89.88, 90.33, 90.41, 90.88, NA, NA, NA, 90.5, 90.21, 
90.62, 90.15, 90.27, NA, NA, 90.76, 90.02, 90.3, 89.74, 90.38, 
NA, NA, 90.06, 90.05, 90.09, 90.17, 89.49, NA, NA, 89.37, 89.13, 
88.4, 86.76, 86.99, NA, NA, 87.14, 86.84, 87.25, 86.77, 87.26, 
NA, NA, 87.91, 87.79, 88.09, 88.47, 88.63, NA, NA, 89.23, 89.38, 
89.17, 89.47, 89, NA, NA, 89.68, 89.59, 89.52, 89.47, 89.35, 
NA, NA, NA, 89.47, 89.67, 89.58, 89.88, NA, NA, 89.29, 88.9, 
89.33, 89.03, 88.59, NA, NA, 89.22, 89.68, 89.15, 89.37, 89.4, 
NA, NA, 89.11, 88.16, 88.97, 87.77, 88.02, NA, NA, 87.61, 87.72, 
86.81, 86.86, 87.22, NA, NA, 87.54, 86.87, 88.3, 86.99, 86.78, 
NA, NA, 86.05, 85.83, 85.3, 84.59, 85.8, NA, NA, 86.78, 87.07, 
86.84, 86.88, 87.33, NA, NA, 87.67, 88.46, 88.36, 88.76, 89.72, 
NA, NA, 89.35, 89.51, 90.06, 90.12, 90.09, NA, NA, 90.54, 90.9, 
90.57, 91.08, 90.65, NA, NA, 90.96, 91.44, 91.83, 91.55, 91.82, 
NA, NA, 91.78, 92, 92.28, NA, 92.96, NA, NA, 92.65, 92.44, 92.02, 
91.89, 91.83, NA, NA, 91.59, 91.2, 90.33, 90.61, 89.24, NA, NA, 
88.35, 88.12, 89.18, 90.85, 90.24, NA, NA, 90.71, 91.05, 91.3, 
NA, 91.26, NA, NA, 90.84, 90.32, 89.61, NA, 89.13, NA, NA, 87.71, 
87.5, 88.67, 90.14, 89.57, NA, NA, 89.77, 89.97, 89.97, 90.64, 
91.39, NA, NA, NA, 91.54, 92.15, 92.86, 92.54, NA, NA, 92.65, 
92.26, 91.2, 92.51, 91.13, NA, NA, 91.99, 92.64, 92.26, 92.64, 
91.81, NA, NA, 91.51, 92.32, 92.57, 93.19, 92.57, NA, NA, NA, 
92.77, 93.14, 93.01, 93.46, NA, NA, 93.6, 94.12, 94.02, 94.34, 
94.25, NA, NA, 94.33, 94.12, 93.56, 93.94, 92.32, NA, NA, 92.5, 
90.92, 90.38, 91.19, 90.75, NA, NA, NA, 85.53, 85.85, NA, NA, 
85.63, 86.31, 86.75, 87.34, 87.83, NA, NA, 86.98, 88.02, 88.04, 
88.34, 88.12, NA, NA, NA, 88.57, 88.78, 88.42, 86.3, NA, NA, 
85.78, 86.5, 85.7, 87.25, 86.33, NA, NA, 84.83, 85.41, 85.22, 
85.82, 87.34, NA, NA, 87.83, 88.96, 88.97, 89.72, 90.23, NA, 
NA, NA, 91.03, 90.5, 91.23, 91.3, NA, NA, 91.99, 91.97, 91.99, 
92.42, 92.53, NA, NA, 91.1, 93, 92.75, 92.58, 92.11, NA, NA, 
92.32, 92.09, 91.91, 90.58, 90.23, NA, NA, 91.02, 91.97, 91.57, 
91.43, 90.34, NA, NA, 89.52, 90.13, 90.18, 90.19, 90.07, NA, 
NA, 91.07, 91.16, 91.37, 91.1, 89.98, NA, NA, 89.13, 88.64, 90.16, 
88, 86.83, NA, NA, 87.32, 87.89, 88.53, 88.75, NA, NA, NA, 89.51, 
90.79, 90.44, 90.22, 89.77, NA, NA, 90.54, 91.06, 91.32, 91.87, 
91.28, NA, NA, 91.51, 90.96, 91.04, 90.61, 90.98, NA, NA, 91.79, 
91.84, 91.92, 91.55, 91.97, NA, NA, 92.01, 91.39, 92.12, 92.58, 
92.6, NA, NA, NA, 93.1, 92.67, 93.27, 93.37, NA, NA, 93.44, 93.56, 
93.55, 93.87, 93.67, NA, NA, 93.36, 93.74, 93.7, 93.39, 93.31, 
NA, NA, 93.58, 93.5, 94.2, 94.45, 95.2, NA, NA, 94.82, 93.74, 
94.44, 94.35, 94.37, NA, NA, 94.33, 95.41, 95.8, 96.13, NA, NA, 
NA, 95.33, 94.66, 94.91, 94.68, 94.73, NA, NA, 95.26, 94.66, 
94.43, 93.31, 94.63, NA, NA, 94.16, 94.77, 95.11, 95.01, 94.46, 
NA, NA, 94.59, 94.39, 95.02, 93.37, 93.25, NA, NA, 93.72, 92.93, 
92.67, 91.51, 92.36, NA, NA, 92.35, 92.33, 93.08, 94.29, 94.15, 
NA, NA, 95.01, 95.47, 95.54, 95.68, 95.75, NA, NA, 96.39, 96.78, 
96.8, 96.82, 97.17, NA, NA, NA, 97.38, 97.84, 97.17, 97.43, NA, 
NA, 97.39, 97.18, 97.88, 97.8, 97.46, NA, NA, 97.2, 98.28, 98.3, 
99.1, 99.06, NA, NA, 98.73, 97.99, 99.24, 97.94, 98.3, NA, NA, 
98.04, 97.7, 96.83, 96.51, 97.48, NA, NA, 97.44, 95.67, 97.67, 
95.54, 94.74, NA, NA, 93.08, 92.61, 91.42, 90.83, 92.65, NA, 
NA, 93.54, 95.45, 95.2, 96.57, 97.79, NA, NA, 97.86, 98.32, 97.75, 
99.63, 100.11, NA, NA, 99.82, 99.98, 99.98, 100.02, 99.31, NA, 
NA, 100.06, 100.46, 100.34, 100.49, 99.84, NA, NA, 100.15, 101.67, 
101.38, 101.05, 101.27, NA, NA, 101.74, 101.82, 102.42, NA, 102.87, 
NA, NA, 102.9, 103.65, 103.46, 103.43, 103.92, NA, NA, 104.08, 
103.42, 102.28, 102.5, 101.03, NA, NA, 99.8, 99.16, 100.64, 103.08, 
102.47, NA, NA, 101.79, 99.99, 100.54, NA, 101.08, NA, NA, 101.08, 
100.58, 99.56, NA, 99.83, NA, NA, 99.33, 98.86, 100.46, 102.56, 
102.02, NA, NA, 101.98, 101.95, 102.08, 101.94, 103.56, NA, NA, 
NA, 103.66, 103.58, 103.94, 103.71, NA, NA, 104.22, 104.03, 102.51, 
103.52, 101.94, NA, NA, 102.55, 102.98, 102.06, 103.47, 102.36, 
NA, NA, 101.65, 103.08, 102.9, 103.6, 104.21, NA, NA, NA, 104.67, 
104.87, 105.07, 106.1, NA, NA, 106.7, 106.76, 106.86, 106.9, 
106.66, NA, NA, 107.3, 106.57, 106.63, 107.22, 105.25, NA, NA, 
105.88, 104.52, 104.38, 105.94, 105.8, NA, NA, NA, 61.61, 61.44, 
NA, NA, 61.24, 61.01, 61.02, 60.54, 60.88, NA, NA, 60.44, 60.97, 
61.3, 61.78, 61.97, NA, NA, NA, 61.84, 61.58, 61.06, 59.42, NA, 
NA, 59.16, 59.83, 59.82, 60.08, 59.45, NA, NA, 58, 58.5, 58.61, 
59.65, 60.64, NA, NA, 60.6, 61.76, 61.85, 62.24, 62.74, NA, NA, 
NA, 63.05, 62.74, 63.08, 63, NA, NA, 63, 62.68, 62.49, 62.84, 
62.85, NA, NA, 62.19, 63.02, 63.15, 63.68, 62.98, NA, NA, 62.24, 
61.67, 61.6, 60.81, 60.87, NA, NA, 61.4, 61.7, 60.78, 60.74, 
61.14, NA, NA, 61.01, 61.7, 61.33, 61.51, 62.02, NA, NA, 62.39, 
62.68, 63.14, 62.78, 62.71, NA, NA, 62.4, 63.12, 63.63, 62.59, 
62.08, NA, NA, 62.55, 62.17, 62.79, 62.95, NA, NA, NA, 63.03, 
63.35, 63.28, 63.23, 63, NA, NA, 62.67, 63.06, 63.67, 63.28, 
63.47, NA, NA, 63.46, 63.41, 63.68, 63.38, 63.3, NA, NA, 64.28, 
64.36, 64.38, 63.84, 63.79, NA, NA, 63.76, 63.32, 63.49, 63.77, 
63.97, NA, NA, NA, 64.16, 63.89, 64.3, 63.51, NA, NA, 63.91, 
63.54, 63.71, 64.1, 64.5, NA, NA, 64.43, 64.27, 64.06, 63.65, 
63.66, NA, NA, 63.93, 63.95, 64.74, 65.06, 65.09, NA, NA, 65.41, 
64.15, 64.24, 64.55, 64.22, NA, NA, 64.52, 65.15, 65.39, 65.88, 
NA, NA, NA, 65.34, 65.09, 65.42, 64.71, 64.72, NA, NA, 65.02, 
64.92, 65.53, 65.01, 65.29, NA, NA, 65.12, 65.45, 65.69, 65.76, 
65.65, NA, NA, 65.89, 65.9, 65.41, 64.1, 63.74, NA, NA, 63.86, 
63.09, 63.53, 62.83, 63.35, NA, NA, 63.76, 63.89, 64.07, 63.96, 
64.1, NA, NA, 64.49, 64.5, 64.38, 64.32, 64.03, NA, NA, 64.19, 
64.43, 64.6, 64.14, 64.12, NA, NA, NA, 63.8, 64.1, 63.73, 63.77, 
NA, NA, 63.25, 62.77, 62.84, 62.61, 62.28, NA, NA, 62.33, 62.62, 
62.38, 62.75, 62.33, NA, NA, 61.6, 61.45, 61.82, 60.67, 60.79, 
NA, NA, 60.17, 59.89, 58.79, 58.5, 58.14, NA, NA, 58.5, 57.57, 
58.52, 57.11, 55.88, NA, NA, 55.66, 56.31, 56.46, 56.39, 56.94, 
NA, NA, 57.31, 58.13, 57.52, 57.7, 57.85, NA, NA, 57.21, 58.03, 
57.46, 57.28, 57.98, NA, NA, 57.42, 56.93, 57.05, 57.23, 57.87, 
NA, NA, 57.91, 58.13, 57.92, 57.92, 58.15, NA, NA, 58.16, 58.87, 
58.51, 58.42, 59.38, NA, NA, 59.31, 59.26, 59.6, NA, 58.04, NA, 
NA, 57.8, 57.87, 58.61, 58.39, 58.2, NA, NA, 57.52, 57.42, 56.38, 
56.13, 54.67, NA, NA, 53.89, 54.09, 55.27, 56.35, 56.2, NA, NA, 
56.07, 56.2, 56.43, NA, 56.48, NA, NA, 56.43, 56.36, 55.91, NA, 
55.77, NA, NA, 54.3, 54.17, 54.61, 55.65, 55.6, NA, NA, 55.3, 
54.82, 53.97, 54.21, 55.16, NA, NA, NA, 55.41, 55.98, 56.44, 
55.55, NA, NA, 56.04, 56.02, 55.23, 55.69, 55.33, NA, NA, 56.41, 
57.57, 57.11, 58.25, 57.49, NA, NA, 57.61, 57.73, 57.51, 58.69, 
59.44, NA, NA, NA, 59.52, 59.87, 59.65, 60.13, NA, NA, 59.77, 
60.43, 60.48, 60.18, 60.19, NA, NA, 60.17, 59.63, 59.14, 59.12, 
58.07, NA, NA, 58.25, 56.91, 56.9, 57.49, 56.91, NA, NA, NA, 
30.29, 30.33, NA, NA, 30.35, 30.37, 30.29, 30.31, 30.52, NA, 
NA, 30.32, 30.37, 30.36, 30.26, 30.45, NA, NA, NA, 30.47, 30.58, 
30.12, 29.55, NA, NA, 29.5, 29.75, 29.35, 29.56, 29.12, NA, NA, 
28.69, 29.16, 29.02, 29.41, 29.75, NA, NA, 29.6, 30.04, 30.07, 
30.04, 30.17, NA, NA, NA, 30.36, 30.31, 30.48, 30.37, NA, NA, 
30.41, 30.32, 30.2, 30.22, 30.31, NA, NA, 29.95, 30.41, 30.25, 
30.64, 30.49, NA, NA, 30.24, 29.99, 29.76, 29.47, 29.39, NA, 
NA, 29.66, 29.85, 29.45, 29.08, 29.1, NA, NA, 29.36, 29.38, 29.26, 
29.61, 29.83, NA, NA, 30.05, 30.12, 30.39, 30.35, 30.31, NA, 
NA, 30.44, 30.49, 30.72, 30.4, 30.25, NA, NA, 30.42, 30.39, 30.65, 
30.78, NA, NA, NA, 30.76, 30.81, 30.7, 30.74, 30.57, NA, NA, 
30.75, 30.88, 30.88, 30.96, 30.94, NA, NA, 30.91, 30.97, 31.13, 
31.11, 31.12, NA, NA, 31.37, 31.48, 31.62, 31.58, 31.75, NA, 
NA, 31.71, 31.41, 31.55, 31.56, 31.84, NA, NA, NA, 32, 31.87, 
32.09, 32.08, NA, NA, 32.35, 32.32, 32.19, 32.32, 32.54, NA, 
NA, 32.58, 32.41, 32.15, 32.14, 32.13, NA, NA, 32.04, 31.99, 
32.22, 32.34, 32.48, NA, NA, 32.32, 31.7, 31.92, 32.09, 32.07, 
NA, NA, 32.13, 32.25, 32.3, 32.27, NA, NA, NA, 32.02, 31.84, 
32.06, 31.94, 32.05, NA, NA, 32.16, 32.16, 32.42, 32.15, 32.47, 
NA, NA, 32.25, 32.46, 32.59, 32.53, 32.22, NA, NA, 32.35, 32.38, 
32.39, 32.08, 32.01, NA, NA, 32.05, 31.68, 31.48, 31.35, 31.51, 
NA, NA, 31.72, 31.73, 31.99, 31.98, 32.1, NA, NA, 32.23, 32.43, 
32.31, 32.43, 32.34, NA, NA, 32.48, 32.47, 32.5, 32.32, 32.24, 
NA, NA, NA, 32.33, 32.53, 32.36, 32.3, NA, NA, 32.01, 31.72, 
31.73, 31.58, 31.37, NA, NA, 31.13, 31.15, 30.84, 31.02, 30.93, 
NA, NA, 30.73, 30.63, 30.45, 30.09, 30.31, NA, NA, 30, 30.04, 
29.72, 29.53, 29.44, NA, NA, 29.58, 29.35, 29.74, 29.31, 29.13, 
NA, NA, 29.09, 29.14, 29.03, 29.12, 29.4, NA, NA, 29.68, 29.98, 
29.8, 30.12, 30.14, NA, NA, 30.14, 30.44, 30.28, 30.52, 31.31, 
NA, NA, 31.34, 31.09, 30.77, 30.32, 30.26, NA, NA, 30.52, 30.72, 
30.75, 30.83, 31.02, NA, NA, 30.87, 30.9, 30.78, 30.6, 30.84, 
NA, NA, 30.86, 30.84, 30.91, NA, 30.83, NA, NA, 30.86, 31.07, 
31.03, 30.69, 30.67, NA, NA, 30.33, 30.35, 30.14, 30.22, 29.96, 
NA, NA, 29.58, 29.67, 30.01, 30.2, 30.12, NA, NA, 30.35, 30.33, 
30.36, NA, 30.55, NA, NA, 30.4, 30.3, 30.04, NA, 30.11, NA, NA, 
29.9, 29.82, 30.29, 30.41, 30.34, NA, NA, 30.35, 30.56, 30.67, 
30.65, 31.16, NA, NA, NA, 30.95, 31.2, 31.21, 31.36, NA, NA, 
31.51, 31.39, 31.2, 31.49, 30.91, NA, NA, 31.48, 31.73, 31.52, 
32.11, 31.76, NA, NA, 31.3, 31.57, 31.41, 31.72, 32.06, NA, NA, 
NA, 31.95, 32.07, 31.94, 32.07, NA, NA, 32.04, 32.09, 32.17, 
32.06, 31.86, NA, NA, 32.07, 32.02, 31.64, 31.52, 30.94, NA, 
NA, 30.59, 30.04, 30.17, 30.47, 30.54, NA, NA, NA, 46.87, 46.88, 
NA, NA, 47.68, 47.79, 47.05, 46.87, 47.9, NA, NA, 47.52, 47.89, 
48.17, 47.82, 47.49, NA, NA, NA, 48.16, NA, 48.43, 46.37, NA, 
NA, 47.1, 47.67, 47.41, 48, NA, NA, NA, 47.7, 47.86, NA, 48.44, 
48.52, NA, NA, 49.37, 49.55, 49.43, 49.74, 48.91, NA, NA, NA, 
50.04, 50.4, NA, 49.78, NA, NA, 50.27, 50.1, 50.4, 50.14, 50.57, 
NA, NA, 50.87, 51.5, NA, 50.72, NA, NA, NA, 50.11, NA, 50.3, 
50.5, 50.13, NA, NA, 50.37, 50.5, 49.97, NA, 49.9, NA, NA, NA, 
49.42, 49.07, 49.4, 50.24, NA, NA, 50.53, 50.07, 50.5, 50.62, 
50.54, NA, NA, 51.19, NA, 51, 50.75, NA, NA, NA, 50.75, 51.07, 
51.1, 51.52, NA, NA, NA, NA, 51.66, 51.58, 51.36, 51.63, NA, 
NA, 51.74, 51.96, 52.14, 52.05, 52.26, NA, NA, NA, 52.06, 52.5, 
52.86, 52.83, NA, NA, 53.1, 53.3, 52.84, 52.4, 53, NA, NA, 53.34, 
52.82, 52.8, 52.53, 52.06, NA, NA, NA, 53.17, 52.69, 52.74, 53.19, 
NA, NA, 53.45, 53.44, 53.46, NA, 54.36, NA, NA, 53.48, 53.46, 
53.13, NA, 52.79, NA, NA, 52.78, 52.76, NA, 53.4, 53.86, NA, 
NA, 53.93, 53.32, 53.21, 53.08, 53.46, NA, NA, 53.41, 53.76, 
53.58, 52.96, NA, NA, NA, 53.34, 53.62, 53.69, 53.83, 53.8, NA, 
NA, 53.95, 53.95, 54.27, 54.27, 54.43, NA, NA, 54.32, 54.74, 
NA, 54.64, 54.35, NA, NA, 54.68, 54.62, 54.18, 53.75, NA, NA, 
NA, 53.59, 53.04, NA, NA, 53.5, NA, NA, NA, NA, 54.23, 54.51, 
NA, NA, NA, 54.64, 55.06, 54.82, 55.02, 54.85, NA, NA, 54.67, 
NA, NA, 54.73, 55.01, NA, NA, NA, 55.04, NA, 54.67, 55.25, NA, 
NA, 55.62, 55.23, 54.34, 54.15, 52.49, NA, NA, 52.13, 52.73, 
52.83, 52.64, 52.64, NA, NA, 52.1, 51.83, 51.21, NA, 51.6, NA, 
NA, 51.47, 51.16, 51.32, 51.03, 51.73, NA, NA, 51.86, 51.46, 
51.3, 52.59, 52.6, NA, NA, 52.78, 52.98, 53.2, 52.62, 53.31, 
NA, NA, 53.68, 54.58, 54.37, 54.99, 54.84, NA, NA, 54.96, 55.23, 
55.24, 55.22, 55.8, NA, NA, 56.57, 56.59, 56.32, 56.03, 56.15, 
NA, NA, 56.46, 56.29, 55.68, 55.95, 55.93, NA, NA, 55.77, 56.15, 
NA, NA, NA, NA, NA, 56.21, NA, 56.62, NA, NA, NA, NA, 57.34, 
57.34, 57.39, 57.35, 56.94, NA, NA, 57, 57.41, 57.67, 57.75, 
57.75, NA, NA, 56.5, 55.99, NA, 57.52, NA, NA, NA, 58.16, NA, 
58.07, NA, 58.1, NA, NA, 58.4, 58.5, NA, NA, 57.95, NA, NA, 58.24, 
58.97, 60.06, 60, NA, NA, NA, 60.61, 60.55, 61.19, 60.9, 61.74, 
NA, NA, NA, 61.36, 60.97, 62.1, 61.86, NA, NA, 62.54, 62.68, 
62.88, 62.78, 62, NA, NA, 60.35, 61.16, NA, 61.97, 60.35, NA, 
NA, 60, 59.43, 59.43, 60.69, 59.56, NA, NA, NA, 59.87, NA, 60.4, 
59.75, NA, NA, 60.49, 58.62, 59.63, 58.9, 59, NA, NA, 59.69, 
59.29, 58.6, 59.3, 56.86, NA, NA, 56.85, 57.46, 57.51, NA, 58.37, 
NA, NA), .Dim = c(439L, 13L), .Dimnames = list(NULL, c("IXG", 
"EXI", "FLM", "IGF", "GNR", "IXN", "JXI", "RXI", "KXI", "IXJ", 
"MXI", "IFGL", "IFNA")), index = structure(c(16071, 16072, 16073, 
16074, 16075, 16076, 16077, 16078, 16079, 16080, 16081, 16082, 
16083, 16084, 16085, 16086, 16087, 16088, 16089, 16090, 16091, 
16092, 16093, 16094, 16095, 16096, 16097, 16098, 16099, 16100, 
16101, 16102, 16103, 16104, 16105, 16106, 16107, 16108, 16109, 
16110, 16111, 16112, 16113, 16114, 16115, 16116, 16117, 16118, 
16119, 16120, 16121, 16122, 16123, 16124, 16125, 16126, 16127, 
16128, 16129, 16130, 16131, 16132, 16133, 16134, 16135, 16136, 
16137, 16138, 16139, 16140, 16141, 16142, 16143, 16144, 16145, 
16146, 16147, 16148, 16149, 16150, 16151, 16152, 16153, 16154, 
16155, 16156, 16157, 16158, 16159, 16160, 16161, 16162, 16163, 
16164, 16165, 16166, 16167, 16168, 16169, 16170, 16171, 16172, 
16173, 16174, 16175, 16176, 16177, 16178, 16179, 16180, 16181, 
16182, 16183, 16184, 16185, 16186, 16187, 16188, 16189, 16190, 
16191, 16192, 16193, 16194, 16195, 16196, 16197, 16198, 16199, 
16200, 16201, 16202, 16203, 16204, 16205, 16206, 16207, 16208, 
16209, 16210, 16211, 16212, 16213, 16214, 16215, 16216, 16217, 
16218, 16219, 16220, 16221, 16222, 16223, 16224, 16225, 16226, 
16227, 16228, 16229, 16230, 16231, 16232, 16233, 16234, 16235, 
16236, 16237, 16238, 16239, 16240, 16241, 16242, 16243, 16244, 
16245, 16246, 16247, 16248, 16249, 16250, 16251, 16252, 16253, 
16254, 16255, 16256, 16257, 16258, 16259, 16260, 16261, 16262, 
16263, 16264, 16265, 16266, 16267, 16268, 16269, 16270, 16271, 
16272, 16273, 16274, 16275, 16276, 16277, 16278, 16279, 16280, 
16281, 16282, 16283, 16284, 16285, 16286, 16287, 16288, 16289, 
16290, 16291, 16292, 16293, 16294, 16295, 16296, 16297, 16298, 
16299, 16300, 16301, 16302, 16303, 16304, 16305, 16306, 16307, 
16308, 16309, 16310, 16311, 16312, 16313, 16314, 16315, 16316, 
16317, 16318, 16319, 16320, 16321, 16322, 16323, 16324, 16325, 
16326, 16327, 16328, 16329, 16330, 16331, 16332, 16333, 16334, 
16335, 16336, 16337, 16338, 16339, 16340, 16341, 16342, 16343, 
16344, 16345, 16346, 16347, 16348, 16349, 16350, 16351, 16352, 
16353, 16354, 16355, 16356, 16357, 16358, 16359, 16360, 16361, 
16362, 16363, 16364, 16365, 16366, 16367, 16368, 16369, 16370, 
16371, 16372, 16373, 16374, 16375, 16376, 16377, 16378, 16379, 
16380, 16381, 16382, 16383, 16384, 16385, 16386, 16387, 16388, 
16389, 16390, 16391, 16392, 16393, 16394, 16395, 16396, 16397, 
16398, 16399, 16400, 16401, 16402, 16403, 16404, 16405, 16406, 
16407, 16408, 16409, 16410, 16411, 16412, 16413, 16414, 16415, 
16416, 16417, 16418, 16419, 16420, 16421, 16422, 16423, 16424, 
16425, 16426, 16427, 16428, 16429, 16430, 16431, 16432, 16433, 
16434, 16435, 16436, 16437, 16438, 16439, 16440, 16441, 16442, 
16443, 16444, 16445, 16446, 16447, 16448, 16449, 16450, 16451, 
16452, 16453, 16454, 16455, 16456, 16457, 16458, 16459, 16460, 
16461, 16462, 16463, 16464, 16465, 16466, 16467, 16468, 16469, 
16470, 16471, 16472, 16473, 16474, 16475, 16476, 16477, 16478, 
16479, 16480, 16481, 16482, 16483, 16484, 16485, 16486, 16487, 
16488, 16489, 16490, 16491, 16492, 16493, 16494, 16495, 16496, 
16497, 16498, 16499, 16500, 16501, 16502, 16503, 16504, 16505, 
16506, 16507, 16508, 16509), class = "Date"), class = "zoo")
